{
    "Radius (m)": [
        6371000,
        6326524,
        6282048,
        6237572,
        6193096,
        6148620,
        6104144,
        6059668,
        6015192,
        5970716,
        5926240,
        5881764,
        5837288,
        5792812,
        5748336,
        5703860,
        5659384,
        5614908,
        5570432,
        5525956,
        5481480,
        5437004,
        5392528,
        5348052,
        5303576,
        5259100,
        5214624,
        5170148,
        5125672,
        5081196,
        5036720,
        4992244,
        4947768,
        4903292,
        4858816,
        4814340,
        4769864,
        4725388,
        4680912,
        4636436,
        4591960,
        4547484,
        4503008,
        4458532,
        4414056,
        4369580,
        4325104,
        4280628,
        4236152,
        4191676,
        4147200,
        4102724,
        4058248,
        4013772,
        3969296,
        3924820,
        3880344,
        3835868,
        3791392,
        3746916,
        3702440,
        3657964,
        3613488,
        3569012,
        3480000
    ],
    "Temperature (K)": [
        300.0,
        442.1,
        721.7,
        909.3,
        1033.2,
        1119.6,
        1182.8,
        1231.1,
        1269.0,
        1299.6,
        1324.8,
        1345.9,
        1363.8,
        1379.2,
        1392.6,
        1404.3,
        1404.4,
        1404.4,
        1404.4,
        1404.4,
        1404.4,
        1404.4,
        1404.4,
        1404.4,
        1404.4,
        1404.4,
        1404.4,
        1404.4,
        1404.4,
        1404.4,
        1404.4,
        1404.4,
        1404.4,
        1404.4,
        1404.4,
        1404.4,
        1404.4,
        1404.4,
        1404.4,
        1404.4,
        1404.4,
        1404.4,
        1404.4,
        1404.4,
        1404.4,
        1404.4,
        1404.4,
        1404.4,
        1404.6,
        1452.5,
        1506.2,
        1566.7,
        1635.4,
        1714.1,
        1804.9,
        1911.0,
        2036.3,
        2186.1,
        2368.0,
        2591.9,
        2870.6,
        3216.2,
        3619.5,
        3953.7,
        4000.0
    ]
}